"SubstrateTrans - RawData"
"Wavelength nm.","T%"
190.00,60.15995
191.00,56.63419
192.00,58.29119
193.00,56.29947
194.00,54.70995
195.00,54.76178
196.00,53.41710
197.00,53.51216
198.00,54.38387
199.00,53.83005
200.00,54.70216
201.00,54.81051
202.00,54.45942
203.00,54.65261
204.00,55.03029
205.00,54.88011
206.00,54.84952
207.00,54.88870
208.00,55.30829
209.00,55.10013
210.00,55.14787
211.00,55.14808
212.00,55.25444
213.00,55.50715
214.00,55.19402
215.00,55.19028
216.00,55.11118
217.00,55.17460
218.00,54.87336
219.00,54.56369
220.00,54.51779
221.00,54.41148
222.00,54.29906
223.00,54.46597
224.00,54.39830
225.00,54.59377
226.00,54.42531
227.00,54.48899
228.00,54.92643
229.00,54.71619
230.00,54.55346
231.00,54.99210
232.00,54.99817
233.00,55.05283
234.00,55.11604
235.00,55.28173
236.00,55.42392
237.00,55.59912
238.00,55.80652
239.00,56.06220
240.00,56.10750
241.00,56.36053
242.00,56.42722
243.00,56.44193
244.00,56.78818
245.00,56.94735
246.00,57.01309
247.00,57.33699
248.00,57.47285
249.00,57.66185
250.00,57.80748
251.00,57.90434
252.00,58.07295
253.00,58.05779
254.00,58.05672
255.00,58.39492
256.00,58.45513
257.00,58.38097
258.00,58.60589
259.00,58.55375
260.00,58.78636
261.00,58.68940
262.00,58.70840
263.00,58.81678
264.00,58.74501
265.00,58.77837
266.00,58.63498
267.00,58.79571
268.00,58.60002
269.00,58.65032
270.00,58.78867
271.00,58.68680
272.00,58.72797
273.00,58.77907
274.00,58.69300
275.00,58.76811
276.00,59.02556
277.00,59.08828
278.00,59.09493
279.00,58.91982
280.00,59.16249
281.00,59.20690
282.00,59.28094
283.00,59.23694
284.00,59.40068
285.00,59.33863
286.00,59.49644
287.00,59.57041
288.00,59.72733
289.00,59.73716
290.00,59.79221
291.00,59.84434
292.00,60.21330
293.00,60.22698
294.00,60.15401
295.00,60.42385
296.00,60.23701
297.00,60.28158
298.00,60.36706
299.00,60.62442
300.00,60.44511
301.00,60.63434
302.00,60.61301
303.00,60.57695
304.00,60.63067
305.00,60.83518
306.00,60.63737
307.00,60.77487
308.00,60.93758
309.00,60.79304
310.00,60.82405
311.00,61.00923
312.00,61.11307
313.00,61.03449
314.00,60.95875
315.00,61.11045
316.00,61.13687
317.00,61.07945
318.00,61.05343
319.00,61.33449
320.00,61.31090
321.00,61.34173
322.00,61.28602
323.00,61.35802
324.00,61.41027
325.00,61.39706
326.00,61.55615
327.00,61.59421
328.00,61.54124
329.00,61.40879
330.00,61.52864
331.00,61.63175
332.00,61.52492
333.00,61.67380
334.00,61.67325
335.00,61.71175
336.00,61.61934
337.00,61.92408
338.00,61.79218
339.00,61.80701
340.00,61.85562
341.00,61.74198
342.00,61.83673
343.00,61.90515
344.00,61.95956
345.00,61.92271
346.00,62.07867
347.00,62.09226
348.00,62.08097
349.00,62.12944
350.00,62.13501
351.00,62.12883
352.00,62.09114
353.00,62.15557
354.00,62.19869
355.00,62.09625
356.00,62.25916
357.00,62.29803
358.00,62.30161
359.00,62.35054
360.00,62.37238
361.00,62.38221
362.00,62.37004
363.00,62.33019
364.00,62.38745
365.00,62.44529
366.00,62.32542
367.00,62.35743
368.00,62.42830
369.00,62.42278
370.00,62.31377
371.00,62.32764
372.00,62.35990
373.00,62.60031
374.00,62.42957
375.00,62.52450
376.00,62.56164
377.00,62.70261
378.00,62.57507
379.00,62.63643
380.00,62.56170
381.00,62.62602
382.00,62.68468
383.00,62.66815
384.00,62.73034
385.00,62.81563
386.00,62.75254
387.00,62.70332
388.00,62.79672
389.00,62.84090
390.00,62.83752
391.00,62.88286
392.00,62.83758
393.00,62.91039
394.00,62.97070
395.00,62.89485
396.00,62.86071
397.00,62.98905
398.00,62.92468
399.00,62.87092
400.00,62.99303
401.00,62.99559
402.00,62.98097
403.00,62.95649
404.00,63.00990
405.00,63.01858
406.00,63.05799
407.00,63.08742
408.00,63.15394
409.00,63.15626
410.00,63.04622
411.00,63.16348
412.00,63.13347
413.00,63.09404
414.00,63.12534
415.00,63.16593
416.00,63.17623
417.00,63.21893
418.00,63.23535
419.00,63.24918
420.00,63.31775
421.00,63.29755
422.00,63.37817
423.00,63.36250
424.00,63.31447
425.00,63.39663
426.00,63.41080
427.00,63.39678
428.00,63.40988
429.00,63.34293
430.00,63.48911
431.00,63.49085
432.00,63.46132
433.00,63.45503
434.00,63.54942
435.00,63.47516
436.00,63.47852
437.00,63.50862
438.00,63.55866
439.00,63.54799
440.00,63.58168
441.00,63.62340
442.00,63.59742
443.00,63.62617
444.00,63.63412
445.00,63.70046
446.00,63.68620
447.00,63.69150
448.00,63.67620
449.00,63.75554
450.00,63.71637
451.00,63.72789
452.00,63.78688
453.00,63.79564
454.00,63.75694
455.00,63.69987
456.00,63.78241
457.00,63.84797
458.00,63.84021
459.00,63.81135
460.00,63.87265
461.00,63.92094
462.00,63.86150
463.00,63.83854
464.00,63.90404
465.00,63.89040
466.00,63.93858
467.00,63.92908
468.00,63.97578
469.00,63.95555
470.00,63.97721
471.00,63.98508
472.00,63.97480
473.00,64.02577
474.00,64.00635
475.00,64.05773
476.00,64.06206
477.00,64.07361
478.00,64.04964
479.00,64.09013
480.00,64.09401
481.00,64.13789
482.00,64.10172
483.00,64.15762
484.00,64.17413
485.00,64.20453
486.00,64.21645
487.00,64.22499
488.00,64.26477
489.00,64.28660
490.00,64.20437
491.00,64.24864
492.00,64.29802
493.00,64.27454
494.00,64.31136
495.00,64.29157
496.00,64.36517
497.00,64.36905
498.00,64.39155
499.00,64.35256
500.00,64.38242
501.00,64.42634
502.00,64.41977
503.00,64.39955
504.00,64.42894
505.00,64.43427
506.00,64.49238
507.00,64.45602
508.00,64.46764
509.00,64.52932
510.00,64.55135
511.00,64.55847
512.00,64.55868
513.00,64.54737
514.00,64.56184
515.00,64.58057
516.00,64.61263
517.00,64.60714
518.00,64.64499
519.00,64.57672
520.00,64.65390
521.00,64.67915
522.00,64.69042
523.00,64.63917
524.00,64.64988
525.00,64.70777
526.00,64.66921
527.00,64.74808
528.00,64.69700
529.00,64.79104
530.00,64.71718
531.00,64.81783
532.00,64.77376
533.00,64.83471
534.00,64.83337
535.00,64.84103
536.00,64.85428
537.00,64.82362
538.00,64.78752
539.00,64.85286
540.00,64.82363
541.00,64.89775
542.00,64.93339
543.00,64.92679
544.00,64.93705
545.00,64.91430
546.00,64.99534
547.00,65.00561
548.00,64.99592
549.00,65.00513
550.00,65.05361
551.00,65.03509
552.00,65.06117
553.00,65.04210
554.00,65.10908
555.00,65.07159
556.00,65.10100
557.00,65.11236
558.00,65.14795
559.00,65.11821
560.00,65.10647
561.00,65.08384
562.00,65.15338
563.00,65.12602
564.00,65.18552
565.00,65.20549
566.00,65.18478
567.00,65.22678
568.00,65.20705
569.00,65.29195
570.00,65.22077
571.00,65.27573
572.00,65.33957
573.00,65.27750
574.00,65.32055
575.00,65.29735
576.00,65.32921
577.00,65.33064
578.00,65.34830
579.00,65.42733
580.00,65.42211
581.00,65.40045
582.00,65.44999
583.00,65.42019
584.00,65.48082
585.00,65.47567
586.00,65.48514
587.00,65.44018
588.00,65.49653
589.00,65.54853
590.00,65.47449
591.00,65.54653
592.00,65.53906
593.00,65.55778
594.00,65.53544
595.00,65.56197
596.00,65.55420
597.00,65.61697
598.00,65.64074
599.00,65.63946
600.00,65.63280
601.00,65.60473
602.00,65.72973
603.00,65.66649
604.00,65.65574
605.00,65.67695
606.00,65.69290
607.00,65.69216
608.00,65.67647
609.00,65.73146
610.00,65.82775
611.00,65.79573
612.00,65.77138
613.00,65.84554
614.00,65.83788
615.00,65.81169
616.00,65.82438
617.00,65.86930
618.00,65.85634
619.00,65.84083
620.00,65.85038
621.00,65.90620
622.00,65.94015
623.00,65.94657
624.00,65.93415
625.00,65.93820
626.00,65.93669
627.00,65.93390
628.00,65.95140
629.00,65.97790
630.00,66.00104
631.00,65.98993
632.00,65.99711
633.00,66.02308
634.00,66.11476
635.00,66.10870
636.00,66.07600
637.00,66.09123
638.00,66.08682
639.00,66.11553
640.00,66.11663
641.00,66.15230
642.00,66.17225
643.00,66.17874
644.00,66.24326
645.00,66.14730
646.00,66.16649
647.00,66.28050
648.00,66.22882
649.00,66.26055
650.00,66.27762
651.00,66.21255
652.00,66.30092
653.00,66.38785
654.00,66.26856
655.00,66.31631
656.00,66.30020
657.00,66.35730
658.00,66.29981
659.00,66.37116
660.00,66.36769
661.00,66.40356
662.00,66.38871
663.00,66.45995
664.00,66.46941
665.00,66.45026
666.00,66.42546
667.00,66.44942
668.00,66.46047
669.00,66.52924
670.00,66.54190
671.00,66.51928
672.00,66.47175
673.00,66.52681
674.00,66.54800
675.00,66.60884
676.00,66.56726
677.00,66.61133
678.00,66.56868
679.00,66.68759
680.00,66.59675
681.00,66.68594
682.00,66.66794
683.00,66.68028
684.00,66.62037
685.00,66.66556
686.00,66.63673
687.00,66.64846
688.00,66.64422
689.00,66.62853
690.00,66.78349
691.00,66.71726
692.00,66.70191
693.00,66.75050
694.00,66.75789
695.00,66.75957
696.00,66.85780
697.00,66.73073
698.00,66.83863
699.00,66.77141
700.00,66.91195
